% Date and time: 2014-03-31 15:08
% Measurement type: Single spectrum
% Initial holding time: 0 seconds
% Integration type: MED
% Integration time: 8
%    Bias [V]	  Freq1 [Hz]	    Cap1 [F]	Cond1 [S/Hz]	
        0.00	     1000000	   1.218E-09	   4.293E-10	
       -0.10	     1000000	   1.161E-09	   3.857E-10	
       -0.20	     1000000	   1.111E-09	   3.498E-10	
       -0.30	     1000000	   1.067E-09	   3.201E-10	
       -0.40	     1000000	   1.028E-09	   2.953E-10	
       -0.50	     1000000	   9.935E-10	   2.740E-10	
       -0.60	     1000000	   9.622E-10	   2.559E-10	
       -0.70	     1000000	   9.339E-10	   2.401E-10	
       -0.80	     1000000	   9.082E-10	   2.263E-10	
       -0.90	     1000000	   8.846E-10	   2.141E-10	
       -1.00	     1000000	   8.630E-10	   2.032E-10	
       -1.10	     1000000	   8.429E-10	   1.934E-10	
       -1.20	     1000000	   8.244E-10	   1.846E-10	
       -1.30	     1000000	   8.072E-10	   1.766E-10	
       -1.40	     1000000	   7.910E-10	   1.694E-10	
       -1.50	     1000000	   7.759E-10	   1.627E-10	
       -1.60	     1000000	   7.617E-10	   1.566E-10	
       -1.70	     1000000	   7.483E-10	   1.510E-10	
       -1.80	     1000000	   7.356E-10	   1.457E-10	
       -1.90	     1000000	   7.237E-10	   1.409E-10	
       -2.00	     1000000	   7.123E-10	   1.364E-10	
       -2.10	     1000000	   7.014E-10	   1.322E-10	
       -2.20	     1000000	   6.911E-10	   1.284E-10	
       -2.30	     1000000	   6.812E-10	   1.247E-10	
       -2.40	     1000000	   6.718E-10	   1.212E-10	
       -2.50	     1000000	   6.628E-10	   1.180E-10	
       -2.60	     1000000	   6.542E-10	   1.149E-10	
       -2.70	     1000000	   6.459E-10	   1.120E-10	
       -2.80	     1000000	   6.379E-10	   1.093E-10	
       -2.90	     1000000	   6.302E-10	   1.067E-10	
       -3.00	     1000000	   6.228E-10	   1.042E-10	
       -3.10	     1000000	   6.157E-10	   1.019E-10	
       -3.20	     1000000	   6.088E-10	   9.965E-11	
       -3.30	     1000000	   6.022E-10	   9.753E-11	
       -3.40	     1000000	   5.957E-10	   9.551E-11	
       -3.50	     1000000	   5.896E-10	   9.359E-11	
       -3.60	     1000000	   5.835E-10	   9.171E-11	
       -3.70	     1000000	   5.777E-10	   8.995E-11	
       -3.80	     1000000	   5.720E-10	   8.826E-11	
       -3.90	     1000000	   5.665E-10	   8.663E-11	
       -4.00	     1000000	   5.612E-10	   8.509E-11	
       -4.10	     1000000	   5.561E-10	   8.362E-11	
       -4.20	     1000000	   5.511E-10	   8.224E-11	
       -4.30	     1000000	   5.462E-10	   8.091E-11	
       -4.40	     1000000	   5.414E-10	   7.962E-11	
       -4.50	     1000000	   5.368E-10	   7.840E-11	
       -4.60	     1000000	   5.323E-10	   7.725E-11	
       -4.70	     1000000	   5.280E-10	   7.609E-11	
       -4.80	     1000000	   5.239E-10	   7.512E-11	
       -4.90	     1000000	   5.197E-10	   7.412E-11	
       -5.00	     1000000	   5.157E-10	   7.308E-11	
       -5.10	     1000000	   5.117E-10	   7.218E-11	
       -5.20	     1000000	   5.079E-10	   7.127E-11	
       -5.30	     1000000	   5.041E-10	   7.038E-11	
       -5.40	     1000000	   5.004E-10	   6.953E-11	
       -5.50	     1000000	   4.969E-10	   6.877E-11	
       -5.60	     1000000	   4.934E-10	   6.806E-11	
       -5.70	     1000000	   4.900E-10	   6.736E-11	
       -5.80	     1000000	   4.866E-10	   6.664E-11	
       -5.90	     1000000	   4.834E-10	   6.604E-11	
       -6.00	     1000000	   4.802E-10	   6.535E-11	
       -6.10	     1000000	   4.770E-10	   6.474E-11	
       -6.20	     1000000	   4.739E-10	   6.412E-11	
       -6.30	     1000000	   4.709E-10	   6.354E-11	
       -6.40	     1000000	   4.679E-10	   6.288E-11	
       -6.50	     1000000	   4.650E-10	   6.236E-11	
       -6.60	     1000000	   4.621E-10	   6.176E-11	
       -6.70	     1000000	   4.593E-10	   6.122E-11	
       -6.80	     1000000	   4.565E-10	   6.075E-11	
       -6.90	     1000000	   4.538E-10	   6.027E-11	
       -7.00	     1000000	   4.511E-10	   5.983E-11	
       -7.10	     1000000	   4.484E-10	   5.933E-11	
       -7.20	     1000000	   4.459E-10	   5.899E-11	
       -7.30	     1000000	   4.433E-10	   5.854E-11	
       -7.40	     1000000	   4.408E-10	   5.812E-11	
       -7.50	     1000000	   4.383E-10	   5.783E-11	
       -7.60	     1000000	   4.359E-10	   5.749E-11	
       -7.70	     1000000	   4.335E-10	   5.710E-11	
       -7.80	     1000000	   4.312E-10	   5.697E-11	
       -7.90	     1000000	   4.289E-10	   5.675E-11	
       -8.00	     1000000	   4.266E-10	   5.649E-11	
       -8.10	     1000000	   4.243E-10	   5.623E-11	
       -8.20	     1000000	   4.221E-10	   5.583E-11	
       -8.30	     1000000	   4.199E-10	   5.561E-11	
       -8.40	     1000000	   4.177E-10	   5.544E-11	
       -8.50	     1000000	   4.156E-10	   5.533E-11	
       -8.60	     1000000	   4.135E-10	   5.506E-11	
       -8.70	     1000000	   4.114E-10	   5.478E-11	
       -8.80	     1000000	   4.094E-10	   5.477E-11	
       -8.90	     1000000	   4.075E-10	   5.456E-11	
       -9.00	     1000000	   4.056E-10	   5.456E-11	
       -9.10	     1000000	   4.036E-10	   5.434E-11	
       -9.20	     1000000	   4.016E-10	   5.418E-11	
       -9.30	     1000000	   3.997E-10	   5.408E-11	
       -9.40	     1000000	   3.979E-10	   5.393E-11	
       -9.50	     1000000	   3.961E-10	   5.409E-11	
       -9.60	     1000000	   3.942E-10	   5.402E-11	
       -9.70	     1000000	   3.925E-10	   5.374E-11	
       -9.80	     1000000	   3.907E-10	   5.361E-11	
       -9.90	     1000000	   3.890E-10	   5.360E-11	
      -10.00	     1000000	   3.872E-10	   5.375E-11	
