% Date and time: 2014-03-31 14:00
% Measurement type: Single spectrum
% Initial holding time: 0 seconds
% Integration type: MED
% Integration time: 8
%    Bias [V]	  Freq1 [Hz]	    Cap1 [F]	Cond1 [S/Hz]	
        0.00	     1000000	   1.127E-09	   3.463E-10	
       -0.10	     1000000	   1.062E-09	   3.048E-10	
       -0.20	     1000000	   1.005E-09	   2.719E-10	
       -0.30	     1000000	   9.555E-10	   2.451E-10	
       -0.40	     1000000	   9.124E-10	   2.229E-10	
       -0.50	     1000000	   8.743E-10	   2.043E-10	
       -0.60	     1000000	   8.410E-10	   1.886E-10	
       -0.70	     1000000	   8.114E-10	   1.752E-10	
       -0.80	     1000000	   7.853E-10	   1.638E-10	
       -0.90	     1000000	   7.617E-10	   1.540E-10	
       -1.00	     1000000	   7.406E-10	   1.454E-10	
       -1.10	     1000000	   7.212E-10	   1.377E-10	
       -1.20	     1000000	   7.037E-10	   1.310E-10	
       -1.30	     1000000	   6.876E-10	   1.250E-10	
       -1.40	     1000000	   6.727E-10	   1.196E-10	
       -1.50	     1000000	   6.590E-10	   1.148E-10	
       -1.60	     1000000	   6.461E-10	   1.103E-10	
       -1.70	     1000000	   6.343E-10	   1.063E-10	
       -1.80	     1000000	   6.233E-10	   1.027E-10	
       -1.90	     1000000	   6.129E-10	   9.924E-11	
       -2.00	     1000000	   6.030E-10	   9.613E-11	
       -2.10	     1000000	   5.938E-10	   9.324E-11	
       -2.20	     1000000	   5.851E-10	   9.057E-11	
       -2.30	     1000000	   5.769E-10	   8.809E-11	
       -2.40	     1000000	   5.691E-10	   8.575E-11	
       -2.50	     1000000	   5.617E-10	   8.356E-11	
       -2.60	     1000000	   5.545E-10	   8.143E-11	
       -2.70	     1000000	   5.477E-10	   7.950E-11	
       -2.80	     1000000	   5.413E-10	   7.770E-11	
       -2.90	     1000000	   5.351E-10	   7.598E-11	
       -3.00	     1000000	   5.293E-10	   7.439E-11	
       -3.10	     1000000	   5.238E-10	   7.296E-11	
       -3.20	     1000000	   5.184E-10	   7.153E-11	
       -3.30	     1000000	   5.133E-10	   7.020E-11	
       -3.40	     1000000	   5.083E-10	   6.890E-11	
       -3.50	     1000000	   5.034E-10	   6.764E-11	
       -3.60	     1000000	   4.988E-10	   6.649E-11	
       -3.70	     1000000	   4.943E-10	   6.533E-11	
       -3.80	     1000000	   4.901E-10	   6.428E-11	
       -3.90	     1000000	   4.859E-10	   6.329E-11	
       -4.00	     1000000	   4.819E-10	   6.229E-11	
       -4.10	     1000000	   4.779E-10	   6.130E-11	
       -4.20	     1000000	   4.741E-10	   6.040E-11	
       -4.30	     1000000	   4.705E-10	   5.954E-11	
       -4.40	     1000000	   4.669E-10	   5.872E-11	
       -4.50	     1000000	   4.635E-10	   5.792E-11	
       -4.60	     1000000	   4.602E-10	   5.718E-11	
       -4.70	     1000000	   4.570E-10	   5.648E-11	
       -4.80	     1000000	   4.538E-10	   5.578E-11	
       -4.90	     1000000	   4.507E-10	   5.515E-11	
       -5.00	     1000000	   4.478E-10	   5.454E-11	
       -5.10	     1000000	   4.449E-10	   5.396E-11	
       -5.20	     1000000	   4.421E-10	   5.340E-11	
       -5.30	     1000000	   4.394E-10	   5.288E-11	
       -5.40	     1000000	   4.366E-10	   5.232E-11	
       -5.50	     1000000	   4.341E-10	   5.186E-11	
       -5.60	     1000000	   4.315E-10	   5.147E-11	
       -5.70	     1000000	   4.291E-10	   5.111E-11	
       -5.80	     1000000	   4.267E-10	   5.077E-11	
       -5.90	     1000000	   4.243E-10	   5.034E-11	
       -6.00	     1000000	   4.220E-10	   5.000E-11	
       -6.10	     1000000	   4.197E-10	   4.957E-11	
       -6.20	     1000000	   4.175E-10	   4.915E-11	
       -6.30	     1000000	   4.153E-10	   4.883E-11	
       -6.40	     1000000	   4.132E-10	   4.850E-11	
       -6.50	     1000000	   4.110E-10	   4.817E-11	
       -6.60	     1000000	   4.089E-10	   4.768E-11	
       -6.70	     1000000	   4.069E-10	   4.732E-11	
       -6.80	     1000000	   4.049E-10	   4.710E-11	
       -6.90	     1000000	   4.030E-10	   4.659E-11	
       -7.00	     1000000	   4.010E-10	   4.647E-11	
       -7.10	     1000000	   3.991E-10	   4.600E-11	
       -7.20	     1000000	   3.973E-10	   4.582E-11	
       -7.30	     1000000	   3.954E-10	   4.574E-11	
       -7.40	     1000000	   3.936E-10	   4.548E-11	
       -7.50	     1000000	   3.919E-10	   4.516E-11	
       -7.60	     1000000	   3.901E-10	   4.506E-11	
       -7.70	     1000000	   3.884E-10	   4.501E-11	
       -7.80	     1000000	   3.867E-10	   4.471E-11	
       -7.90	     1000000	   3.851E-10	   4.443E-11	
       -8.00	     1000000	   3.836E-10	   4.467E-11	
       -8.10	     1000000	   3.820E-10	   4.443E-11	
       -8.20	     1000000	   3.803E-10	   4.436E-11	
       -8.30	     1000000	   3.787E-10	   4.387E-11	
       -8.40	     1000000	   3.772E-10	   4.367E-11	
       -8.50	     1000000	   3.757E-10	   4.354E-11	
       -8.60	     1000000	   3.741E-10	   4.356E-11	
       -8.70	     1000000	   3.726E-10	   4.333E-11	
       -8.80	     1000000	   3.713E-10	   4.327E-11	
       -8.90	     1000000	   3.697E-10	   4.274E-11	
       -9.00	     1000000	   3.683E-10	   4.268E-11	
       -9.10	     1000000	   3.669E-10	   4.292E-11	
       -9.20	     1000000	   3.656E-10	   4.349E-11	
       -9.30	     1000000	   3.642E-10	   4.338E-11	
       -9.40	     1000000	   3.629E-10	   4.349E-11	
       -9.50	     1000000	   3.616E-10	   4.339E-11	
       -9.60	     1000000	   3.604E-10	   4.332E-11	
       -9.70	     1000000	   3.590E-10	   4.347E-11	
       -9.80	     1000000	   3.577E-10	   4.342E-11	
       -9.90	     1000000	   3.566E-10	   4.380E-11	
      -10.00	     1000000	   3.552E-10	   4.358E-11	
