% Date and time: 2014-03-31 14:20
% Measurement type: Single spectrum
% Initial holding time: 0 seconds
% Integration type: MED
% Integration time: 8
%    Bias [V]	  Freq1 [Hz]	    Cap1 [F]	Cond1 [S/Hz]	
        0.00	     1000000	   1.165E-09	   4.017E-10	
       -0.10	     1000000	   1.114E-09	   3.635E-10	
       -0.20	     1000000	   1.070E-09	   3.326E-10	
       -0.30	     1000000	   1.031E-09	   3.069E-10	
       -0.40	     1000000	   9.966E-10	   2.852E-10	
       -0.50	     1000000	   9.654E-10	   2.664E-10	
       -0.60	     1000000	   9.372E-10	   2.500E-10	
       -0.70	     1000000	   9.113E-10	   2.355E-10	
       -0.80	     1000000	   8.876E-10	   2.227E-10	
       -0.90	     1000000	   8.656E-10	   2.112E-10	
       -1.00	     1000000	   8.454E-10	   2.010E-10	
       -1.10	     1000000	   8.264E-10	   1.916E-10	
       -1.20	     1000000	   8.088E-10	   1.831E-10	
       -1.30	     1000000	   7.923E-10	   1.755E-10	
       -1.40	     1000000	   7.768E-10	   1.683E-10	
       -1.50	     1000000	   7.621E-10	   1.618E-10	
       -1.60	     1000000	   7.483E-10	   1.558E-10	
       -1.70	     1000000	   7.352E-10	   1.502E-10	
       -1.80	     1000000	   7.227E-10	   1.450E-10	
       -1.90	     1000000	   7.110E-10	   1.402E-10	
       -2.00	     1000000	   6.996E-10	   1.356E-10	
       -2.10	     1000000	   6.889E-10	   1.314E-10	
       -2.20	     1000000	   6.785E-10	   1.274E-10	
       -2.30	     1000000	   6.687E-10	   1.236E-10	
       -2.40	     1000000	   6.592E-10	   1.200E-10	
       -2.50	     1000000	   6.500E-10	   1.166E-10	
       -2.60	     1000000	   6.411E-10	   1.134E-10	
       -2.70	     1000000	   6.325E-10	   1.103E-10	
       -2.80	     1000000	   6.242E-10	   1.074E-10	
       -2.90	     1000000	   6.161E-10	   1.046E-10	
       -3.00	     1000000	   6.082E-10	   1.019E-10	
       -3.10	     1000000	   6.005E-10	   9.932E-11	
       -3.20	     1000000	   5.930E-10	   9.682E-11	
       -3.30	     1000000	   5.856E-10	   9.444E-11	
       -3.40	     1000000	   5.784E-10	   9.214E-11	
       -3.50	     1000000	   5.713E-10	   8.992E-11	
       -3.60	     1000000	   5.643E-10	   8.773E-11	
       -3.70	     1000000	   5.573E-10	   8.559E-11	
       -3.80	     1000000	   5.504E-10	   8.357E-11	
       -3.90	     1000000	   5.436E-10	   8.153E-11	
       -4.00	     1000000	   5.368E-10	   7.954E-11	
       -4.10	     1000000	   5.301E-10	   7.761E-11	
       -4.20	     1000000	   5.235E-10	   7.580E-11	
       -4.30	     1000000	   5.169E-10	   7.393E-11	
       -4.40	     1000000	   5.103E-10	   7.212E-11	
       -4.50	     1000000	   5.036E-10	   7.032E-11	
       -4.60	     1000000	   4.972E-10	   6.857E-11	
       -4.70	     1000000	   4.907E-10	   6.688E-11	
       -4.80	     1000000	   4.843E-10	   6.519E-11	
       -4.90	     1000000	   4.781E-10	   6.359E-11	
       -5.00	     1000000	   4.720E-10	   6.200E-11	
       -5.10	     1000000	   4.660E-10	   6.047E-11	
       -5.20	     1000000	   4.602E-10	   5.900E-11	
       -5.30	     1000000	   4.546E-10	   5.760E-11	
       -5.40	     1000000	   4.493E-10	   5.626E-11	
       -5.50	     1000000	   4.441E-10	   5.499E-11	
       -5.60	     1000000	   4.393E-10	   5.379E-11	
       -5.70	     1000000	   4.346E-10	   5.267E-11	
       -5.80	     1000000	   4.301E-10	   5.162E-11	
       -5.90	     1000000	   4.259E-10	   5.064E-11	
       -6.00	     1000000	   4.219E-10	   4.972E-11	
       -6.10	     1000000	   4.181E-10	   4.884E-11	
       -6.20	     1000000	   4.146E-10	   4.804E-11	
       -6.30	     1000000	   4.112E-10	   4.728E-11	
       -6.40	     1000000	   4.080E-10	   4.659E-11	
       -6.50	     1000000	   4.050E-10	   4.595E-11	
       -6.60	     1000000	   4.021E-10	   4.533E-11	
       -6.70	     1000000	   3.993E-10	   4.474E-11	
       -6.80	     1000000	   3.967E-10	   4.419E-11	
       -6.90	     1000000	   3.942E-10	   4.365E-11	
       -7.00	     1000000	   3.917E-10	   4.313E-11	
       -7.10	     1000000	   3.894E-10	   4.265E-11	
       -7.20	     1000000	   3.872E-10	   4.221E-11	
       -7.30	     1000000	   3.851E-10	   4.180E-11	
       -7.40	     1000000	   3.830E-10	   4.141E-11	
       -7.50	     1000000	   3.809E-10	   4.101E-11	
       -7.60	     1000000	   3.791E-10	   4.069E-11	
       -7.70	     1000000	   3.772E-10	   4.035E-11	
       -7.80	     1000000	   3.754E-10	   4.005E-11	
       -7.90	     1000000	   3.736E-10	   3.976E-11	
       -8.00	     1000000	   3.719E-10	   3.955E-11	
       -8.10	     1000000	   3.702E-10	   3.931E-11	
       -8.20	     1000000	   3.686E-10	   3.914E-11	
       -8.30	     1000000	   3.670E-10	   3.897E-11	
       -8.40	     1000000	   3.655E-10	   3.884E-11	
       -8.50	     1000000	   3.641E-10	   3.876E-11	
       -8.60	     1000000	   3.627E-10	   3.865E-11	
       -8.70	     1000000	   3.612E-10	   3.852E-11	
       -8.80	     1000000	   3.598E-10	   3.834E-11	
       -8.90	     1000000	   3.584E-10	   3.820E-11	
       -9.00	     1000000	   3.570E-10	   3.807E-11	
       -9.10	     1000000	   3.557E-10	   3.801E-11	
       -9.20	     1000000	   3.543E-10	   3.792E-11	
       -9.30	     1000000	   3.531E-10	   3.786E-11	
       -9.40	     1000000	   3.518E-10	   3.783E-11	
       -9.50	     1000000	   3.506E-10	   3.778E-11	
       -9.60	     1000000	   3.493E-10	   3.769E-11	
       -9.70	     1000000	   3.481E-10	   3.746E-11	
       -9.80	     1000000	   3.468E-10	   3.746E-11	
       -9.90	     1000000	   3.457E-10	   3.742E-11	
      -10.00	     1000000	   3.445E-10	   3.753E-11	
